Frequency (Hz)  beta (rad/m)
2.5E13	1467.00824
2.55E13	1529.99955
2.6E13	1576.211
2.65E13	1629.31187
2.7E13	1630.64816
2.75E13	1701.02695
2.8E13	1740.53418
2.85E13	1753.93192
2.9E13	1777.35865
2.95E13	1814.93172
3E13	1808.3435
3.05E13	1855.04581
3.1E13	1838.4377
3.15E13	1792.33698
3.2E13	1795.87921
3.25E13	1741.05777
3.3E13	1714.18059
3.35E13	1623.01265
3.4E13	1626.46824
3.45E13	1632.96496
3.5E13	1573.51294
3.55E13	1521.9298
3.6E13	1508.90219
3.65E13	1516.38078
3.7E13	1502.92921
3.75E13	1512.72207
3.8E13	1576.93981
3.85E13	1614.25236
3.9E13	1717.42045
3.95E13	1813.87922
4E13	1968.97422
4.05E13	2123.49342
4.1E13	2323.78994
4.15E13	2594.8671
4.2E13	2868.65782
4.25E13	3142.32007
4.3E13	3371.60171
4.35E13	3725.27555
4.4E13	3987.87004
4.45E13	4249.71732
4.5E13	4265.96044
4.55E13	4097.23159
4.6E13	4141.85471
4.65E13	3589.73047
4.7E13	3499.43621
4.75E13	3305.36139
4.8E13	2861.89822
4.85E13	2678.30261
4.9E13	2506.55795
4.95E13	2174.27812
5E13	1927.96626
5.05E13	1551.05918
5.1E13	1449.49362
5.15E13	1266.11862
5.2E13	1251.78236
5.25E13	1150.23682
5.3E13	1081.39489
5.35E13	963.00386
5.4E13	779.91961
5.45E13	791.30995
5.5E13	778.34304
5.55E13	669.85597
5.6E13	623.64332
5.65E13	606.45578
5.7E13	544.70152
5.75E13	522.98737
5.8E13	479.99203
5.85E13	482.84799
5.9E13	460.3766
5.95E13	461.83611
6E13	442.89405
6.05E13	432.7049
6.1E13	432.59994
6.15E13	443.14495
6.2E13	430.12559
6.25E13	425.79329
6.3E13	429.22154
6.35E13	425.35156
6.4E13	452.66948
6.45E13	463.74476
6.5E13	460.35761
6.55E13	474.47173
6.6E13	487.49293
6.65E13	502.91934
6.7E13	525.82795
6.75E13	550.68256
6.8E13	578.45341
6.85E13	604.80128
6.9E13	644.27172
6.95E13	685.94523
7E13	727.78754
7.05E13	777.9742
7.1E13	844.35785
7.15E13	904.64938
7.2E13	992.06855
7.25E13	1076.97501
7.3E13	1179.96377
7.35E13	1304.0681
7.4E13	1447.08011
7.45E13	1610.31795
7.5E13	1802.30276
7.55E13	1994.04244
7.6E13	2241.08813
7.65E13	2554.75854
7.7E13	2812.92112
7.75E13	3137.23136
7.8E13	3510.39498
7.85E13	3832.37469
7.9E13	4066.96422
7.95E13	4212.51032
8E13	4355.61612
8.05E13	4298.14329
8.1E13	4157.6553
8.15E13	3595.83424
8.2E13	3521.74738
8.25E13	3208.15229
8.3E13	2872.00036
8.35E13	2482.4206
8.4E13	2339.21869
8.45E13	1762.71235
8.5E13	1755.14005
8.55E13	1482.93512
8.6E13	1343.51445
8.65E13	1208.43845
8.7E13	1094.90242
8.75E13	1044.54296
8.8E13	943.90687
8.85E13	867.31249
8.9E13	771.86
8.95E13	754.20578
9E13	707.27963
9.05E13	649.50133
9.1E13	630.41322
9.15E13	615.7288
9.2E13	587.68559
9.25E13	540.92685
9.3E13	543.49435
9.35E13	516.33231
9.4E13	493.80108
9.45E13	486.69328
9.5E13	486.20112
9.55E13	481.21868
9.6E13	473.69727
9.65E13	491.6025
9.7E13	492.28458
9.75E13	487.30904
9.8E13	497.48797
9.85E13	506.94748
9.9E13	525.81078
9.95E13	533.76619
1E14	558.77179
1.005E14	585.14226
1.01E14	605.70272
1.015E14	625.281
1.02E14	660.27469
1.025E14	702.09787
1.03E14	755.73493
1.035E14	796.66181
1.04E14	858.01472
1.045E14	931.24298
1.05E14	1004.49889
1.055E14	1077.47213
1.06E14	1184.53322
1.065E14	1281.15082
1.07E14	1439.83835
1.075E14	1586.82425
1.08E14	1811.2223
1.085E14	1948.75689
1.09E14	2165.44617
1.095E14	2412.12766
1.1E14	2779.05847
1.105E14	3048.47818
1.11E14	3326.15483
1.115E14	3594.34961
1.12E14	3841.25075
1.125E14	3922.00675
1.13E14	3913.78764
1.135E14	3978.3941
1.14E14	3784.63255
1.145E14	3365.36707
1.15E14	2924.90403
1.155E14	3016.27088
1.16E14	2631.72107
1.165E14	2163.23812
1.17E14	2022.01069
1.175E14	1597.74075
1.18E14	1585.83224
1.185E14	1433.09624
1.19E14	1330.821
1.195E14	1175.75472
1.2E14	975.66055
1.205E14	1014.22034
1.21E14	862.37373
1.215E14	785.14829
1.22E14	783.90505
1.225E14	795.54398
1.23E14	724.70152
1.235E14	689.31271
1.24E14	642.95778
1.245E14	620.33378
1.25E14	580.45355
1.255E14	614.4596
1.26E14	592.96257
1.265E14	586.46239
1.27E14	566.48433
1.275E14	585.34255
1.28E14	576.49829
1.285E14	569.81275
1.29E14	572.99984
1.295E14	605.79248
1.3E14	623.60385
1.305E14	636.72598
1.31E14	659.16615
1.315E14	678.70076
1.32E14	713.64271
1.325E14	762.71821
1.33E14	801.38802
1.335E14	844.43685
1.34E14	912.78692
1.345E14	969.3272
1.35E14	1064.07989
1.355E14	1165.99622
1.36E14	1249.98757
1.365E14	1360.18163
1.37E14	1530.9201
1.375E14	1653.2841
1.38E14	1862.64163
1.385E14	2039.32878
1.39E14	2269.89036
1.395E14	2466.91668
1.4E14	2714.03804
1.405E14	2966.34875
1.41E14	3267.28234
1.415E14	3517.6926
1.42E14	3646.50128
1.425E14	3566.97524
1.43E14	3686.67751
1.435E14	3621.59341
1.44E14	3504.66263
1.445E14	2943.1225
1.45E14	2893.96276
1.455E14	2535.91273
1.46E14	2380.56494
1.465E14	2040.47307
1.47E14	1786.13107
1.475E14	1841.01089
1.48E14	1648.93991
1.485E14	1789.45121
1.49E14	1290.38555
1.495E14	1262.64491
1.5E14	1194.70257