Frequency (Hz)  beta (rad/m)
2.5E13	-1293.8748
2.55E13	-1253.4542
2.6E13	-1264.25657
2.65E13	-1224.55787
2.7E13	-1239.11894
2.75E13	-1274.40138
2.8E13	-1327.46721
2.85E13	-1387.2618
2.9E13	-1428.02829
2.95E13	-1478.6999
3E13	-1531.19174
3.05E13	-1605.55316
3.1E13	-1717.30513
3.15E13	-1767.40862
3.2E13	-1799.25088
3.25E13	-1869.85631
3.3E13	-1932.93767
3.35E13	-1931.08067
3.4E13	-1978.28087
3.45E13	-2031.74143
3.5E13	-2047.37423
3.55E13	-2019.31308
3.6E13	-2033.7382
3.65E13	-2005.7488
3.7E13	-1972.96986
3.75E13	-1933.84518
3.8E13	-1954.7403
3.85E13	-2002.41065
3.9E13	-1842.3729
3.95E13	-1773.48016
4E13	-1751.33155
4.05E13	-1686.04709
4.1E13	-1603.50148
4.15E13	-1580.03979
4.2E13	-1526.62812
4.25E13	-1481.47321
4.3E13	-1384.00161
4.35E13	-1420.91309
4.4E13	-1364.55844
4.45E13	-1360.23854
4.5E13	-1312.68961
4.55E13	-1265.9599
4.6E13	-1258.43463
4.65E13	-1190.16235
4.7E13	-1186.49153
4.75E13	-1169.19627
4.8E13	-1139.9121
4.85E13	-1127.46835
4.9E13	-1105.12567
4.95E13	-1069.11336
5E13	-1061.47251
5.05E13	-1015.16653
5.1E13	-1002.05431
5.15E13	-979.1742
5.2E13	-965.08682
5.25E13	-953.64643
5.3E13	-929.45113
5.35E13	-907.29079
5.4E13	-872.22169
5.45E13	-857.67636
5.5E13	-842.70178
5.55E13	-819.83573
5.6E13	-797.22136
5.65E13	-780.20187
5.7E13	-749.89281
5.75E13	-733.48803
5.8E13	-705.1325
5.85E13	-693.30947
5.9E13	-665.64594
5.95E13	-654.97725
6E13	-626.24201
6.05E13	-599.68764
6.1E13	-584.52062
6.15E13	-564.70142
6.2E13	-537.4618
6.25E13	-513.17692
6.3E13	-488.9656
6.35E13	-464.38052
6.4E13	-443.90013
6.45E13	-420.49311
6.5E13	-388.59166
6.55E13	-363.77668
6.6E13	-334.43578
6.65E13	-304.87863
6.7E13	-278.10561
6.75E13	-247.16686
6.8E13	-212.75146
6.85E13	-181.03843
6.9E13	-147.42399
6.95E13	-109.18026
7E13	-73.59041
7.05E13	-31.38658
7.1E13	9.6701
7.15E13	49.24703
7.2E13	92.57278
7.25E13	140.84215
7.3E13	185.59425
7.35E13	233.03514
7.4E13	281.18436
7.45E13	327.25612
7.5E13	371.15829
7.55E13	422.40104
7.6E13	457.16701
7.65E13	481.96284
7.7E13	510.27289
7.75E13	504.31487
7.8E13	478.61532
7.85E13	426.09723
7.9E13	338.26905
7.95E13	232.89814
8E13	50.61762
8.05E13	-107.44148
8.1E13	-340.42692
8.15E13	-579.55237
8.2E13	-716.70795
8.25E13	-918.77613
8.3E13	-1087.98757
8.35E13	-1225.66971
8.4E13	-1326.78978
8.45E13	-1398.90592
8.5E13	-1457.16281
8.55E13	-1475.86674
8.6E13	-1486.38331
8.65E13	-1506.01421
8.7E13	-1507.01253
8.75E13	-1492.99509
8.8E13	-1482.25056
8.85E13	-1450.81076
8.9E13	-1412.11921
8.95E13	-1430.32056
9E13	-1402.39293
9.05E13	-1379.57222
9.1E13	-1357.84422
9.15E13	-1342.16688
9.2E13	-1288.79573
9.25E13	-1271.4433
9.3E13	-1259.32368
9.35E13	-1212.69823
9.4E13	-1195.40577
9.45E13	-1180.39666
9.5E13	-1169.29782
9.55E13	-1138.50723
9.6E13	-1120.90512
9.65E13	-1106.61365
9.7E13	-1106.4568
9.75E13	-1074.82572
9.8E13	-1060.15782
9.85E13	-1026.06847
9.9E13	-1024.43407
9.95E13	-1002.80978
1E14	-1003.47708
1.005E14	-975.35079
1.01E14	-969.10816
1.015E14	-949.92994
1.02E14	-911.34389
1.025E14	-905.81659
1.03E14	-910.13245
1.035E14	-884.11688
1.04E14	-884.45438
1.045E14	-870.60928
1.05E14	-844.225
1.055E14	-832.6964
1.06E14	-831.57972
1.065E14	-828.24559
1.07E14	-798.88449
1.075E14	-794.01152
1.08E14	-773.74352
1.085E14	-778.76588
1.09E14	-767.95832
1.095E14	-759.83937
1.1E14	-734.61323
1.105E14	-734.99501
1.11E14	-716.85907
1.115E14	-702.61292
1.12E14	-691.31545
1.125E14	-687.41008
1.13E14	-674.00723
1.135E14	-666.92307
1.14E14	-651.80815
1.145E14	-635.62396
1.15E14	-621.38083
1.155E14	-623.36449
1.16E14	-610.56589
1.165E14	-592.33572
1.17E14	-590.17781
1.175E14	-562.13413
1.18E14	-564.81091
1.185E14	-549.60518
1.19E14	-540.30057
1.195E14	-530.0488
1.2E14	-511.58929
1.205E14	-505.66439
1.21E14	-488.01945
1.215E14	-478.76341
1.22E14	-462.02518
1.225E14	-456.82386
1.23E14	-439.03121
1.235E14	-424.40321
1.24E14	-406.23354
1.245E14	-396.89833
1.25E14	-380.07795
1.255E14	-362.21937
1.26E14	-348.07474
1.265E14	-335.55272
1.27E14	-317.4505
1.275E14	-300.32578
1.28E14	-277.68904
1.285E14	-256.01073
1.29E14	-235.26858
1.295E14	-215.89359
1.3E14	-189.79982
1.305E14	-167.86936
1.31E14	-142.52026
1.315E14	-109.02695
1.32E14	-83.86409
1.325E14	-52.29889
1.33E14	-22.90404
1.335E14	16.73972
1.34E14	55.62406
1.345E14	95.33252
1.35E14	139.91518
1.355E14	190.035
1.36E14	236.37063
1.365E14	279.90605
1.37E14	325.16273
1.375E14	367.19159
1.38E14	402.42296
1.385E14	440.77132
1.39E14	446.66042
1.395E14	410.07792
1.4E14	383.26452
1.405E14	268.04579
1.41E14	134.59527
1.415E14	-20.22715
1.42E14	-190.3452
1.425E14	-476.94393
1.43E14	-677.3919
1.435E14	-816.18067
1.44E14	-922.63382
1.445E14	-1018.82784
1.45E14	-1072.3356
1.455E14	-1113.64024
1.46E14	-1138.14018
1.465E14	-1164.49001
1.47E14	-1133.12017
1.475E14	-1123.19737
1.48E14	-1110.4315
1.485E14	-1111.94707
1.49E14	-1063.33684
1.495E14	-1067.15254
1.5E14	-1061.62328